Theta [deg.]  Phi   [deg.]  Abs(Dir.)[dBi   ]   Abs(Theta)[dBi   ]  Phase(Theta)[deg.]  Abs(Phi  )[dBi   ]  Phase(Phi  )[deg.]  Ax.Ratio[dB    ]    
------------------------------------------------------------------------------------------------------------------------------------------------------
   0.000           0.000           -3.647e+01          -3.647e+01             145.976          -9.030e+01              54.381           4.000e+01     
   5.000           0.000           -1.937e+01          -1.937e+01             229.160          -9.011e+01              53.820           4.000e+01     
  10.000           0.000           -1.344e+01          -1.344e+01             233.143          -9.001e+01              53.257           4.000e+01     
  15.000           0.000           -9.982e+00          -9.982e+00             234.472          -9.000e+01              52.677           4.000e+01     
  20.000           0.000           -7.564e+00          -7.564e+00             235.132          -9.007e+01              52.068           4.000e+01     
  25.000           0.000           -5.726e+00          -5.726e+00             235.523          -9.023e+01              51.416           4.000e+01     
  30.000           0.000           -4.266e+00          -4.266e+00             235.780          -9.049e+01              50.699           4.000e+01     
  35.000           0.000           -3.074e+00          -3.074e+00             235.960          -9.086e+01              49.894           4.000e+01     
  40.000           0.000           -2.084e+00          -2.084e+00             236.092          -9.135e+01              48.962           4.000e+01     
  45.000           0.000           -1.256e+00          -1.256e+00             236.191          -9.197e+01              47.850           4.000e+01     
  50.000           0.000           -5.602e-01          -5.602e-01             236.267          -9.275e+01              46.477           4.000e+01     
  55.000           0.000            2.224e-02           2.224e-02             236.327          -9.373e+01              44.713           4.000e+01     
  60.000           0.000            5.057e-01           5.057e-01             236.373          -9.495e+01              42.333           4.000e+01     
  65.000           0.000            9.008e-01           9.008e-01             236.409          -9.647e+01              38.923           4.000e+01     
  70.000           0.000            1.215e+00           1.215e+00             236.436          -9.841e+01              33.628           4.000e+01     
  75.000           0.000            1.455e+00           1.455e+00             236.456          -1.009e+02              24.466           4.000e+01     
  80.000           0.000            1.623e+00           1.623e+00             236.470          -1.039e+02               6.413           4.000e+01     
  85.000           0.000            1.723e+00           1.723e+00             236.478          -1.061e+02             331.265           4.000e+01     
  90.000           0.000            1.756e+00           1.756e+00             236.480          -1.045e+02             292.974           4.000e+01     
  95.000           0.000            1.723e+00           1.723e+00             236.478          -1.013e+02             271.997           4.000e+01     
 100.000           0.000            1.624e+00           1.624e+00             236.469          -9.853e+01             261.586           4.000e+01     
 105.000           0.000            1.456e+00           1.456e+00             236.455          -9.636e+01             255.736           4.000e+01     
 110.000           0.000            1.217e+00           1.217e+00             236.435          -9.463e+01             252.054           4.000e+01     
 115.000           0.000            9.027e-01           9.027e-01             236.407          -9.323e+01             249.535           4.000e+01     
 120.000           0.000            5.081e-01           5.081e-01             236.371          -9.208e+01             247.702           4.000e+01     
 125.000           0.000            2.509e-02           2.509e-02             236.324          -9.113e+01             246.303           4.000e+01     
 130.000           0.000           -5.567e-01          -5.567e-01             236.265          -9.034e+01             245.193           4.000e+01     
 135.000           0.000           -1.252e+00          -1.252e+00             236.189          -8.969e+01             244.283           4.000e+01     
 140.000           0.000           -2.079e+00          -2.079e+00             236.089          -8.915e+01             243.515           4.000e+01     
 145.000           0.000           -3.068e+00          -3.068e+00             235.957          -8.872e+01             242.850           4.000e+01     
 150.000           0.000           -4.259e+00          -4.259e+00             235.777          -8.838e+01             242.262           4.000e+01     
 155.000           0.000           -5.718e+00          -5.718e+00             235.521          -8.812e+01             241.729           4.000e+01     
 160.000           0.000           -7.552e+00          -7.552e+00             235.130          -8.794e+01             241.237           4.000e+01     
 165.000           0.000           -9.967e+00          -9.967e+00             234.472          -8.783e+01             240.775           4.000e+01     
 170.000           0.000           -1.342e+01          -1.342e+01             233.148          -8.779e+01             240.335           4.000e+01     
 175.000           0.000           -1.933e+01          -1.933e+01             229.196          -8.782e+01             239.909           4.000e+01     
 180.000           0.000           -3.647e+01          -3.647e+01             148.164          -8.791e+01             239.487           4.000e+01     
 175.000         180.000           -1.937e+01          -1.937e+01             245.211          -8.806e+01              59.073           4.000e+01     
 170.000         180.000           -1.344e+01          -1.344e+01             241.227          -8.826e+01              58.659           4.000e+01     
 165.000         180.000           -9.982e+00          -9.982e+00             239.898          -8.852e+01              58.241           4.000e+01     
 160.000         180.000           -7.564e+00          -7.564e+00             239.238          -8.884e+01              57.815           4.000e+01     
 155.000         180.000           -5.726e+00          -5.726e+00             238.846          -8.922e+01              57.378           4.000e+01     
 150.000         180.000           -4.266e+00          -4.266e+00             238.589          -8.966e+01              56.924           4.000e+01     
 145.000         180.000           -3.074e+00          -3.074e+00             238.409          -9.016e+01              56.448           4.000e+01     
 140.000         180.000           -2.084e+00          -2.084e+00             238.277          -9.072e+01              55.943           4.000e+01     
 135.000         180.000           -1.256e+00          -1.256e+00             238.178          -9.136e+01              55.399           4.000e+01     
 130.000         180.000           -5.602e-01          -5.602e-01             238.102          -9.208e+01              54.804           4.000e+01     
 125.000         180.000            2.221e-02           2.221e-02             238.042          -9.289e+01              54.140           4.000e+01     
 120.000         180.000            5.057e-01           5.057e-01             237.996          -9.381e+01              53.380           4.000e+01     
 115.000         180.000            9.008e-01           9.008e-01             237.960          -9.485e+01              52.485           4.000e+01     
 110.000         180.000            1.215e+00           1.215e+00             237.933          -9.606e+01              51.388           4.000e+01     
 105.000         180.000            1.455e+00           1.455e+00             237.913          -9.747e+01              49.981           4.000e+01     
 100.000         180.000            1.623e+00           1.623e+00             237.899          -9.918e+01              48.058           4.000e+01     
  95.000         180.000            1.723e+00           1.723e+00             237.891          -1.013e+02              45.187           4.000e+01     
  90.000         180.000            1.756e+00           1.756e+00             237.889          -1.041e+02              40.295           4.000e+01     
  85.000         180.000            1.723e+00           1.723e+00             237.891          -1.080e+02              29.908           4.000e+01     
  80.000         180.000            1.624e+00           1.624e+00             237.900          -1.135e+02             358.087           4.000e+01     
  75.000         180.000            1.456e+00           1.456e+00             237.914          -1.130e+02             289.431           4.000e+01     
  70.000         180.000            1.217e+00           1.217e+00             237.934          -1.076e+02             261.322           4.000e+01     
  65.000         180.000            9.027e-01           9.027e-01             237.962          -1.038e+02             251.779           4.000e+01     
  60.000         180.000            5.081e-01           5.081e-01             237.998          -1.011e+02             247.140           4.000e+01     
  55.000         180.000            2.507e-02           2.507e-02             238.044          -9.908e+01             244.353           4.000e+01     
  50.000         180.000           -5.568e-01          -5.568e-01             238.104          -9.744e+01             242.446           4.000e+01     
  45.000         180.000           -1.252e+00          -1.252e+00             238.180          -9.609e+01             241.022           4.000e+01     
  40.000         180.000           -2.079e+00          -2.079e+00             238.280          -9.495e+01             239.889           4.000e+01     
  35.000         180.000           -3.068e+00          -3.068e+00             238.411          -9.398e+01             238.943           4.000e+01     
  30.000         180.000           -4.259e+00          -4.259e+00             238.591          -9.315e+01             238.124           4.000e+01     
  25.000         180.000           -5.718e+00          -5.718e+00             238.848          -9.244e+01             237.394           4.000e+01     
  20.000         180.000           -7.552e+00          -7.552e+00             239.239          -9.184e+01             236.726           4.000e+01     
  15.000         180.000           -9.967e+00          -9.967e+00             239.897          -9.132e+01             236.103           4.000e+01     
  10.000         180.000           -1.342e+01          -1.342e+01             241.220          -9.090e+01             235.511           4.000e+01     
   5.000         180.000           -1.933e+01          -1.933e+01             245.171          -9.056e+01             234.941           4.000e+01     
